OOIBase32 Version 2.0.6.5 Data File
++++++++++++++++++++++++++++++++++++
Date: 03-23-2011, 12:16:10
User: Valued Ocean Optics Customer
Spectrometer Serial Number: USB4C01507
Spectrometer Channel: Master
Integration Time (msec): 62
Spectra Averaged: 20
Boxcar Smoothing: 5
Correct for Electrical Dark: Enabled
Time Normalized: Disabled
Dual-beam Reference: Disabled
Reference Channel: Master
Temperature: Not acquired
Spectrometer Type: S4000
ADC Type: USB4000
Number of Pixels in File: 3648
Graph Title: 
>>>>>Begin Spectral Data<<<<<
178.53	147.011
178.74	2163.028
178.96	45.997
179.18	69.038
179.39	-202.725
179.61	-36.867
179.82	-223.510
180.04	39.194
180.25	169.283
180.47	275.534
180.69	-209.330
180.90	49.615
181.12	-250.089
181.33	720.775
181.55	471.477
181.76	-58.000
181.98	334.655
182.20	-15.559
182.41	70.740
182.63	25.038
182.84	31.842
183.06	39.388
183.27	34.065
183.49	28.614
183.71	20.785
183.92	16.876
184.14	25.662
184.35	19.930
184.57	11.613
184.78	22.406
185.00	19.962
185.21	27.237
185.43	21.505
185.65	25.922
185.86	28.178
186.08	29.036
186.29	25.704
186.51	21.189
186.72	22.343
186.94	31.547
187.15	25.396
187.37	39.536
187.58	38.873
187.80	38.171
188.02	20.598
188.23	14.959
188.45	18.210
188.66	28.219
188.88	27.627
189.09	24.995
189.31	24.078
189.52	22.707
189.74	17.648
189.95	14.907
190.17	23.544
190.38	35.444
190.60	33.263
190.82	33.611
191.03	33.902
191.25	36.199
191.46	34.405
191.68	26.823
191.89	31.209
192.11	33.685
192.32	26.910
192.54	25.753
192.75	17.581
192.97	29.622
193.18	26.894
193.40	23.331
193.61	24.862
193.83	26.640
194.04	31.362
194.26	27.892
194.48	28.151
194.69	30.760
194.91	30.568
195.12	34.038
195.34	20.851
195.55	22.876
195.77	28.667
195.98	32.364
196.20	30.971
196.41	27.068
196.63	30.797
196.84	31.773
197.06	31.907
197.27	31.218
197.49	30.711
197.70	34.873
197.92	32.108
198.13	31.645
198.35	19.871
198.56	16.926
198.78	13.732
198.99	14.046
199.21	6.358
199.42	4.511
199.64	1.650
199.85	1.769
200.07	-3.996
200.28	-1.401
200.50	-0.016
200.71	6.678
200.93	10.479
201.14	13.565
201.36	9.031
201.57	18.468
201.79	17.753
202.00	24.419
202.22	21.571
202.43	26.662
202.65	27.171
202.86	20.181
203.08	15.332
203.29	19.771
203.51	18.417
203.72	19.614
203.94	15.116
204.15	13.754
204.37	7.572
204.58	8.879
204.80	9.642
205.01	14.861
205.22	17.313
205.44	19.857
205.65	15.198
205.87	17.383
206.08	15.432
206.30	18.585
206.51	19.607
206.73	21.615
206.94	21.709
207.16	21.697
207.37	17.395
207.59	15.111
207.80	12.971
208.02	14.289
208.23	16.050
208.45	18.677
208.66	14.110
208.88	14.990
209.09	10.935
209.30	10.730
209.52	6.416
209.73	7.965
209.95	9.181
210.16	11.493
210.38	9.883
210.59	11.116
210.81	11.824
211.02	13.767
211.24	6.472
211.45	10.299
211.66	10.399
211.88	10.585
212.09	7.741
212.31	10.156
212.52	8.626
212.74	9.347
212.95	6.046
213.17	2.676
213.38	-0.010
213.60	8.219
213.81	4.299
214.02	7.557
214.24	5.317
214.45	5.539
214.67	1.856
214.88	2.075
215.10	-2.986
215.31	0.009
215.53	2.504
215.74	4.205
215.95	3.685
216.17	2.831
216.38	-1.416
216.60	5.135
216.81	6.505
217.03	7.482
217.24	7.435
217.45	14.597
217.67	12.881
217.88	10.635
218.10	9.108
218.31	11.612
218.53	12.565
218.74	12.463
218.95	7.270
219.17	4.990
219.38	7.121
219.60	6.228
219.81	3.100
220.03	2.182
220.24	3.550
220.45	4.527
220.67	-0.761
220.88	1.901
221.10	3.411
221.31	5.565
221.53	5.738
221.74	4.128
221.95	3.995
222.17	4.058
222.38	3.570
222.60	4.026
222.81	3.539
223.02	4.699
223.24	5.517
223.45	5.702
223.67	5.407
223.88	5.928
224.09	6.004
224.31	7.388
224.52	8.129
224.74	7.769
224.95	6.018
225.16	6.346
225.38	6.922
225.59	5.962
225.81	5.243
226.02	5.887
226.23	6.570
226.45	6.397
226.66	5.274
226.88	5.172
227.09	4.978
227.30	4.833
227.52	4.955
227.73	4.096
227.95	3.782
228.16	3.436
228.37	2.982
228.59	2.614
228.80	2.374
229.02	2.431
229.23	2.086
229.44	2.135
229.66	2.187
229.87	2.048
230.08	2.048
230.30	1.851
230.51	1.801
230.73	1.974
230.94	1.936
231.15	2.434
231.37	2.416
231.58	2.835
231.80	2.820
232.01	2.750
232.22	2.511
232.44	2.978
232.65	3.199
232.86	3.512
233.08	2.785
233.29	2.876
233.51	2.253
233.72	2.784
233.93	3.239
234.15	3.874
234.36	3.999
234.57	3.907
234.79	3.824
235.00	3.880
235.21	3.830
235.43	4.325
235.64	4.539
235.86	5.146
236.07	4.519
236.28	4.599
236.50	4.038
236.71	3.785
236.92	3.520
237.14	2.944
237.35	2.995
237.56	2.918
237.78	2.446
237.99	2.406
238.20	1.952
238.42	2.720
238.63	2.088
238.84	1.394
239.06	1.608
239.27	1.824
239.48	1.661
239.70	1.000
239.91	0.974
240.13	1.204
240.34	1.093
240.55	0.962
240.77	0.677
240.98	0.868
241.19	1.363
241.41	1.326
241.62	1.320
241.83	1.665
242.05	1.906
242.26	2.021
242.47	2.005
242.69	2.199
242.90	2.260
243.11	2.139
243.33	1.995
243.54	1.929
243.75	1.953
243.97	2.157
244.18	2.027
244.39	2.004
244.61	1.924
244.82	2.154
245.03	1.835
245.24	1.943
245.46	2.218
245.67	2.615
245.88	2.708
246.10	2.606
246.31	2.505
246.52	2.447
246.74	2.359
246.95	2.403
247.16	2.335
247.38	2.254
247.59	2.211
247.80	2.207
248.02	2.174
248.23	2.138
248.44	2.207
248.66	2.133
248.87	2.295
249.08	2.459
249.29	2.275
249.51	2.370
249.72	2.475
249.93	2.654
250.15	2.772
250.36	2.915
250.57	2.954
250.79	2.893
251.00	3.066
251.21	2.645
251.42	2.171
251.64	2.477
251.85	2.415
252.06	2.469
252.28	2.429
252.49	2.523
252.70	2.496
252.91	2.412
253.13	2.408
253.34	2.320
253.55	2.385
253.77	2.722
253.98	2.812
254.19	3.056
254.40	3.267
254.62	3.132
254.83	2.913
255.04	3.107
255.26	3.123
255.47	3.294
255.68	3.411
255.89	3.459
256.11	2.834
256.32	2.735
256.53	2.506
256.75	2.417
256.96	2.532
257.17	2.465
257.38	2.159
257.60	2.203
257.81	2.062
258.02	2.014
258.23	1.907
258.45	2.229
258.66	2.118
258.87	1.931
259.09	1.765
259.30	1.667
259.51	1.655
259.72	1.674
259.94	1.693
260.15	1.678
260.36	1.642
260.57	1.658
260.79	1.660
261.00	1.724
261.21	1.759
261.42	1.910
261.64	2.087
261.85	2.303
262.06	2.428
262.27	2.579
262.49	2.692
262.70	2.818
262.91	2.806
263.12	2.795
263.34	2.564
263.55	2.468
263.76	2.184
263.97	2.063
264.19	1.834
264.40	1.907
264.61	1.726
264.82	1.619
265.04	1.713
265.25	1.399
265.46	1.186
265.67	1.256
265.88	1.110
266.10	1.192
266.31	1.231
266.52	1.260
266.73	1.262
266.95	1.448
267.16	1.514
267.37	1.498
267.58	1.596
267.80	1.780
268.01	1.777
268.22	2.003
268.43	1.953
268.64	1.938
268.86	2.037
269.07	1.930
269.28	1.705
269.49	1.696
269.71	1.764
269.92	1.960
270.13	1.890
270.34	1.767
270.55	1.808
270.77	1.992
270.98	1.927
271.19	1.962
271.40	2.144
271.61	2.326
271.83	2.409
272.04	2.409
272.25	2.407
272.46	2.345
272.68	2.474
272.89	2.351
273.10	2.194
273.31	2.243
273.52	2.215
273.74	2.109
273.95	2.058
274.16	1.956
274.37	1.897
274.58	1.862
274.80	1.940
275.01	1.785
275.22	1.870
275.43	2.103
275.64	2.065
275.86	1.884
276.07	1.820
276.28	1.900
276.49	1.882
276.70	1.961
276.91	1.890
277.13	1.755
277.34	1.713
277.55	1.876
277.76	1.842
277.97	1.882
278.19	2.046
278.40	2.130
278.61	2.064
278.82	1.975
279.03	1.757
279.24	1.956
279.46	1.964
279.67	2.146
279.88	1.838
280.09	1.823
280.30	1.751
280.52	1.654
280.73	1.596
280.94	1.666
281.15	1.620
281.36	1.676
281.57	1.378
281.79	1.358
282.00	1.310
282.21	1.457
282.42	1.401
282.63	1.346
282.84	1.467
283.06	1.645
283.27	1.521
283.48	1.638
283.69	1.667
283.90	1.729
284.11	1.888
284.32	1.849
284.54	1.756
284.75	1.778
284.96	1.853
285.17	1.768
285.38	1.634
285.59	1.725
285.81	1.741
286.02	1.870
286.23	1.893
286.44	1.827
286.65	1.733
286.86	1.765
287.07	1.828
287.29	1.863
287.50	1.830
287.71	1.940
287.92	1.856
288.13	1.913
288.34	1.755
288.55	1.801
288.77	1.810
288.98	1.971
289.19	2.042
289.40	1.983
289.61	2.005
289.82	2.129
290.03	2.050
290.24	2.163
290.46	2.166
290.67	2.183
290.88	2.156
291.09	2.265
291.30	2.311
291.51	2.179
291.72	2.150
291.93	2.102
292.15	2.108
292.36	2.090
292.57	2.053
292.78	2.006
292.99	1.844
293.20	1.864
293.41	1.869
293.62	1.958
293.84	2.202
294.05	2.336
294.26	2.462
294.47	2.431
294.68	2.423
294.89	2.540
295.10	2.554
295.31	2.748
295.52	2.796
295.73	2.700
295.95	2.602
296.16	2.509
296.37	2.491
296.58	2.474
296.79	2.470
297.00	2.637
297.21	2.602
297.42	2.654
297.63	2.685
297.84	2.733
298.06	2.793
298.27	2.871
298.48	2.965
298.69	3.003
298.90	3.002
299.11	3.118
299.32	2.970
299.53	3.008
299.74	3.044
299.95	3.069
300.16	3.045
300.38	3.057
300.59	3.027
300.80	3.013
301.01	2.948
301.22	2.995
301.43	2.957
301.64	2.967
301.85	2.959
302.06	2.953
302.27	2.956
302.48	2.940
302.69	2.943
302.91	3.004
303.12	2.813
303.33	2.853
303.54	2.878
303.75	3.012
303.96	3.169
304.17	3.187
304.38	3.147
304.59	3.306
304.80	3.382
305.01	3.389
305.22	3.468
305.43	3.738
305.64	3.805
305.85	3.860
306.06	3.754
306.28	3.791
306.49	3.745
306.70	3.845
306.91	3.737
307.12	3.737
307.33	3.829
307.54	3.721
307.75	3.623
307.96	3.578
308.17	3.577
308.38	3.664
308.59	3.645
308.80	3.707
309.01	3.688
309.22	3.738
309.43	3.662
309.64	3.608
309.85	3.664
310.06	3.625
310.27	3.719
310.48	3.703
310.70	3.653
310.91	3.646
311.12	3.691
311.33	3.704
311.54	3.660
311.75	3.808
311.96	3.775
312.17	3.757
312.38	3.849
312.59	3.825
312.80	3.815
313.01	3.980
313.22	4.044
313.43	4.041
313.64	4.106
313.85	4.167
314.06	4.116
314.27	4.299
314.48	4.293
314.69	4.436
314.90	4.393
315.11	4.432
315.32	4.350
315.53	4.424
315.74	4.457
315.95	4.502
316.16	4.540
316.37	4.638
316.58	4.560
316.79	4.633
317.00	4.550
317.21	4.708
317.42	4.824
317.63	4.838
317.84	4.809
318.05	4.856
318.26	4.767
318.47	4.781
318.68	4.751
318.89	4.819
319.10	4.824
319.31	4.868
319.52	4.826
319.73	4.803
319.94	4.756
320.15	4.756
320.36	4.792
320.57	4.945
320.78	4.976
320.99	5.014
321.20	5.010
321.41	5.034
321.62	5.069
321.83	5.066
322.04	5.052
322.25	5.151
322.46	5.211
322.67	5.396
322.88	5.341
323.09	5.377
323.30	5.408
323.51	5.517
323.72	5.569
323.93	5.556
324.14	5.621
324.35	5.647
324.56	5.610
324.77	5.518
324.98	5.392
325.19	5.471
325.40	5.383
325.61	5.346
325.82	5.359
326.03	5.327
326.24	5.386
326.45	5.419
326.65	5.435
326.86	5.463
327.07	5.488
327.28	5.520
327.49	5.446
327.70	5.544
327.91	5.539
328.12	5.479
328.33	5.522
328.54	5.458
328.75	5.427
328.96	5.539
329.17	5.568
329.38	5.659
329.59	5.643
329.80	5.755
330.01	5.828
330.22	5.816
330.43	5.881
330.64	5.930
330.85	5.996
331.05	6.019
331.26	6.015
331.47	6.048
331.68	6.047
331.89	6.019
332.10	6.022
332.31	6.054
332.52	6.091
332.73	6.072
332.94	6.092
333.15	6.094
333.36	6.087
333.57	6.099
333.78	6.089
333.99	6.167
334.19	6.201
334.40	6.186
334.61	6.086
334.82	6.139
335.03	6.191
335.24	6.225
335.45	6.230
335.66	6.287
335.87	6.259
336.08	6.321
336.29	6.300
336.50	6.288
336.71	6.315
336.91	6.362
337.12	6.387
337.33	6.374
337.54	6.318
337.75	6.333
337.96	6.385
338.17	6.360
338.38	6.317
338.59	6.338
338.80	6.424
339.01	6.423
339.21	6.406
339.42	6.406
339.63	6.345
339.84	6.323
340.05	6.347
340.26	6.344
340.47	6.369
340.68	6.427
340.89	6.413
341.10	6.402
341.30	6.407
341.51	6.465
341.72	6.424
341.93	6.540
342.14	6.613
342.35	6.591
342.56	6.539
342.77	6.510
342.98	6.440
343.18	6.486
343.39	6.466
343.60	6.443
343.81	6.326
344.02	6.366
344.23	6.311
344.44	6.268
344.65	6.254
344.85	6.371
345.06	6.447
345.27	6.497
345.48	6.455
345.69	6.412
345.90	6.438
346.11	6.501
346.32	6.444
346.52	6.477
346.73	6.443
346.94	6.521
347.15	6.385
347.36	6.379
347.57	6.379
347.78	6.379
347.98	6.444
348.19	6.487
348.40	6.545
348.61	6.592
348.82	6.614
349.03	6.684
349.24	6.659
349.44	6.733
349.65	6.767
349.86	6.763
350.07	6.852
350.28	6.851
350.49	6.826
350.70	6.777
350.90	6.755
351.11	6.737
351.32	6.780
351.53	6.870
351.74	6.860
351.95	6.876
352.15	6.869
352.36	6.807
352.57	6.888
352.78	6.890
352.99	6.940
353.20	7.025
353.40	7.036
353.61	7.032
353.82	6.951
354.03	7.015
354.24	6.993
354.45	7.025
354.65	7.094
354.86	7.025
355.07	7.042
355.28	7.043
355.49	7.101
355.70	7.180
355.90	7.139
356.11	7.162
356.32	7.095
356.53	7.118
356.74	7.138
356.94	7.176
357.15	7.186
357.36	7.209
357.57	7.257
357.78	7.232
357.99	7.144
358.19	7.256
358.40	7.292
358.61	7.396
358.82	7.433
359.03	7.437
359.23	7.398
359.44	7.460
359.65	7.495
359.86	7.536
360.07	7.515
360.27	7.567
360.48	7.516
360.69	7.506
360.90	7.457
361.11	7.450
361.31	7.454
361.52	7.468
361.73	7.436
361.94	7.388
362.15	7.313
362.35	7.335
362.56	7.343
362.77	7.364
362.98	7.402
363.18	7.419
363.39	7.415
363.60	7.452
363.81	7.453
364.02	7.478
364.22	7.548
364.43	7.639
364.64	7.638
364.85	7.657
365.05	7.699
365.26	7.725
365.47	7.748
365.68	7.806
365.89	7.824
366.09	7.817
366.30	7.861
366.51	7.861
366.72	7.838
366.92	7.882
367.13	7.902
367.34	7.898
367.55	7.884
367.75	7.897
367.96	7.881
368.17	7.932
368.38	7.969
368.58	7.948
368.79	7.957
369.00	8.019
369.21	8.045
369.41	8.084
369.62	8.090
369.83	8.088
370.04	8.139
370.24	8.148
370.45	8.082
370.66	8.129
370.87	8.156
371.07	8.197
371.28	8.173
371.49	8.184
371.70	8.147
371.90	8.193
372.11	8.245
372.32	8.276
372.53	8.296
372.73	8.378
372.94	8.373
373.15	8.396
373.36	8.399
373.56	8.439
373.77	8.485
373.98	8.551
374.19	8.491
374.39	8.477
374.60	8.445
374.81	8.456
375.01	8.402
375.22	8.410
375.43	8.443
375.64	8.491
375.84	8.474
376.05	8.484
376.26	8.512
376.46	8.589
376.67	8.618
376.88	8.633
377.09	8.650
377.29	8.720
377.50	8.757
377.71	8.786
377.91	8.776
378.12	8.825
378.33	8.755
378.54	8.760
378.74	8.762
378.95	8.794
379.16	8.749
379.36	8.750
379.57	8.784
379.78	8.797
379.99	8.779
380.19	8.795
380.40	8.819
380.61	8.881
380.81	8.861
381.02	8.913
381.23	8.955
381.43	9.042
381.64	9.112
381.85	9.127
382.05	9.130
382.26	9.153
382.47	9.145
382.67	9.163
382.88	9.170
383.09	9.202
383.30	9.181
383.50	9.161
383.71	9.189
383.92	9.200
384.12	9.235
384.33	9.273
384.54	9.288
384.74	9.356
384.95	9.331
385.16	9.367
385.36	9.406
385.57	9.410
385.78	9.451
385.98	9.456
386.19	9.483
386.40	9.433
386.60	9.450
386.81	9.492
387.02	9.483
387.22	9.533
387.43	9.557
387.64	9.579
387.84	9.637
388.05	9.627
388.26	9.635
388.46	9.636
388.67	9.682
388.88	9.705
389.08	9.690
389.29	9.720
389.49	9.765
389.70	9.767
389.91	9.740
390.11	9.730
390.32	9.752
390.53	9.770
390.73	9.772
390.94	9.791
391.15	9.758
391.35	9.783
391.56	9.821
391.77	9.782
391.97	9.801
392.18	9.837
392.38	9.848
392.59	9.861
392.80	9.888
393.00	9.905
393.21	9.919
393.42	9.967
393.62	9.994
393.83	9.979
394.04	10.007
394.24	10.021
394.45	10.052
394.65	10.081
394.86	10.095
395.07	10.140
395.27	10.164
395.48	10.177
395.68	10.212
395.89	10.247
396.10	10.282
396.30	10.319
396.51	10.350
396.72	10.346
396.92	10.367
397.13	10.391
397.33	10.386
397.54	10.419
397.75	10.465
397.95	10.483
398.16	10.455
398.36	10.473
398.57	10.504
398.78	10.511
398.98	10.539
399.19	10.578
399.39	10.606
399.60	10.629
399.81	10.616
400.01	10.603
400.22	10.610
400.42	10.613
400.63	10.633
400.84	10.645
401.04	10.705
401.25	10.716
401.45	10.708
401.66	10.718
401.86	10.709
402.07	10.720
402.28	10.746
402.48	10.748
402.69	10.802
402.89	10.804
403.10	10.788
403.31	10.773
403.51	10.796
403.72	10.828
403.92	10.848
404.13	10.898
404.33	10.958
404.54	10.967
404.75	10.989
404.95	11.002
405.16	11.012
405.36	11.033
405.57	11.065
405.77	11.081
405.98	11.067
406.18	11.079
406.39	11.093
406.60	11.073
406.80	11.089
407.01	11.131
407.21	11.169
407.42	11.175
407.62	11.189
407.83	11.199
408.03	11.253
408.24	11.301
408.45	11.348
408.65	11.334
408.86	11.374
409.06	11.416
409.27	11.445
409.47	11.448
409.68	11.485
409.88	11.508
410.09	11.524
410.29	11.531
410.50	11.545
410.71	11.530
410.91	11.561
411.12	11.582
411.32	11.597
411.53	11.609
411.73	11.637
411.94	11.668
412.14	11.683
412.35	11.705
412.55	11.719
412.76	11.726
412.96	11.781
413.17	11.793
413.37	11.791
413.58	11.815
413.78	11.809
413.99	11.821
414.19	11.834
414.40	11.863
414.61	11.858
414.81	11.851
415.02	11.861
415.22	11.829
415.43	11.837
415.63	11.836
415.84	11.831
416.04	11.827
416.25	11.846
416.45	11.832
416.66	11.829
416.86	11.842
417.07	11.848
417.27	11.865
417.48	11.865
417.68	11.872
417.89	11.875
418.09	11.887
418.30	11.906
418.50	11.905
418.71	11.917
418.91	11.948
419.12	11.951
419.32	11.966
419.53	11.967
419.73	11.995
419.94	11.979
420.14	11.974
420.34	11.966
420.55	11.944
420.75	11.951
420.96	11.963
421.16	11.964
421.37	11.987
421.57	11.996
421.78	12.015
421.98	12.037
422.19	12.080
422.39	12.121
422.60	12.151
422.80	12.195
423.01	12.204
423.21	12.203
423.42	12.200
423.62	12.180
423.83	12.191
424.03	12.214
424.23	12.235
424.44	12.261
424.64	12.280
424.85	12.316
425.05	12.363
425.26	12.393
425.46	12.443
425.67	12.519
425.87	12.596
426.08	12.668
426.28	12.721
426.48	12.756
426.69	12.795
426.89	12.860
427.10	12.878
427.30	12.894
427.51	12.956
427.71	12.996
427.92	12.976
428.12	12.980
428.32	12.948
428.53	12.941
428.73	12.945
428.94	12.934
429.14	12.928
429.35	12.951
429.55	12.947
429.76	12.945
429.96	12.958
430.16	12.967
430.37	13.010
430.57	13.043
430.78	13.044
430.98	13.042
431.19	13.066
431.39	13.060
431.59	13.040
431.80	13.039
432.00	13.021
432.21	12.990
432.41	12.947
432.61	12.911
432.82	12.925
433.02	12.937
433.23	12.959
433.43	12.973
433.64	13.005
433.84	13.032
434.04	13.091
434.25	13.142
434.45	13.215
434.66	13.311
434.86	13.401
435.06	13.437
435.27	13.480
435.47	13.520
435.68	13.519
435.88	13.522
436.08	13.525
436.29	13.497
436.49	13.481
436.70	13.462
436.90	13.443
437.10	13.420
437.31	13.407
437.51	13.414
437.71	13.403
437.92	13.429
438.12	13.424
438.33	13.415
438.53	13.408
438.73	13.406
438.94	13.396
439.14	13.417
439.35	13.424
439.55	13.440
439.75	13.439
439.96	13.446
440.16	13.469
440.36	13.485
440.57	13.521
440.77	13.579
440.97	13.605
441.18	13.647
441.38	13.682
441.59	13.702
441.79	13.751
441.99	13.799
442.20	13.857
442.40	13.885
442.60	13.938
442.81	13.959
443.01	13.950
443.21	13.956
443.42	13.949
443.62	13.933
443.83	13.934
444.03	13.908
444.23	13.876
444.44	13.827
444.64	13.796
444.84	13.771
445.05	13.746
445.25	13.726
445.45	13.715
445.66	13.713
445.86	13.709
446.06	13.719
446.27	13.746
446.47	13.761
446.67	13.804
446.88	13.859
447.08	13.897
447.28	13.966
447.49	14.026
447.69	14.079
447.89	14.140
448.10	14.208
448.30	14.262
448.50	14.270
448.71	14.340
448.91	14.346
449.11	14.347
449.32	14.366
449.52	14.376
449.72	14.385
449.93	14.416
450.13	14.434
450.33	14.450
450.53	14.468
450.74	14.489
450.94	14.464
451.14	14.473
451.35	14.477
451.55	14.468
451.75	14.471
451.96	14.489
452.16	14.502
452.36	14.515
452.57	14.518
452.77	14.535
452.97	14.553
453.17	14.575
453.38	14.610
453.58	14.647
453.78	14.672
453.99	14.673
454.19	14.687
454.39	14.700
454.59	14.708
454.80	14.727
455.00	14.721
455.20	14.769
455.41	14.787
455.61	14.827
455.81	14.844
456.01	14.895
456.22	14.922
456.42	14.918
456.62	14.917
456.83	14.936
457.03	14.956
457.23	14.972
457.43	14.946
457.64	14.927
457.84	14.894
458.04	14.867
458.25	14.818
458.45	14.791
458.65	14.762
458.85	14.723
459.06	14.670
459.26	14.643
459.46	14.629
459.66	14.641
459.87	14.686
460.07	14.718
460.27	14.773
460.47	14.833
460.68	14.902
460.88	14.983
461.08	15.067
461.28	15.177
461.49	15.240
461.69	15.327
461.89	15.378
462.09	15.415
462.30	15.435
462.50	15.441
462.70	15.449
462.90	15.456
463.11	15.450
463.31	15.471
463.51	15.457
463.71	15.471
463.92	15.465
464.12	15.469
464.32	15.473
464.52	15.501
464.72	15.513
464.93	15.517
465.13	15.503
465.33	15.502
465.53	15.499
465.74	15.507
465.94	15.500
466.14	15.490
466.34	15.486
466.54	15.482
466.75	15.470
466.95	15.477
467.15	15.485
467.35	15.505
467.56	15.541
467.76	15.577
467.96	15.592
468.16	15.635
468.36	15.664
468.57	15.691
468.77	15.716
468.97	15.740
469.17	15.743
469.37	15.753
469.58	15.769
469.78	15.763
469.98	15.761
470.18	15.795
470.38	15.803
470.59	15.826
470.79	15.855
470.99	15.890
471.19	15.919
471.39	15.947
471.60	15.959
471.80	15.963
472.00	15.949
472.20	15.941
472.40	15.928
472.61	15.923
472.81	15.931
473.01	15.935
473.21	15.946
473.41	15.969
473.61	15.984
473.82	15.990
474.02	16.025
474.22	16.071
474.42	16.116
474.62	16.141
474.82	16.165
475.03	16.189
475.23	16.188
475.43	16.190
475.63	16.171
475.83	16.159
476.03	16.173
476.24	16.169
476.44	16.152
476.64	16.146
476.84	16.143
477.04	16.166
477.24	16.163
477.45	16.192
477.65	16.202
477.85	16.219
478.05	16.226
478.25	16.253
478.45	16.262
478.65	16.296
478.86	16.316
479.06	16.341
479.26	16.353
479.46	16.374
479.66	16.367
479.86	16.378
480.06	16.377
480.27	16.386
480.47	16.373
480.67	16.369
480.87	16.365
481.07	16.358
481.27	16.352
481.47	16.349
