OOIBase32 Version 2.0.6.5 Data File
++++++++++++++++++++++++++++++++++++
Date: 03-23-2011, 12:16:15
User: Valued Ocean Optics Customer
Spectrometer Serial Number: USB4C01507
Spectrometer Channel: Master
Integration Time (msec): 62
Spectra Averaged: 20
Boxcar Smoothing: 5
Correct for Electrical Dark: Enabled
Time Normalized: Disabled
Dual-beam Reference: Disabled
Reference Channel: Master
Temperature: Not acquired
Spectrometer Type: S4000
ADC Type: USB4000
Number of Pixels in File: 3648
Graph Title: 
>>>>>Begin Spectral Data<<<<<
178.53	76.872
178.74	1794.014
178.96	184.152
179.18	-14.915
179.39	-291.545
179.61	55.142
179.82	62.587
180.04	75.651
180.25	50.200
180.47	83.509
180.69	375.323
180.90	57.820
181.12	62.587
181.33	33523.592
181.55	266.851
181.76	44.515
181.98	328.380
182.20	-29.597
182.41	24.034
182.63	66.962
182.84	42.189
183.06	44.833
183.27	39.419
183.49	25.466
183.71	28.484
183.92	13.530
184.14	20.439
184.35	13.244
184.57	7.288
184.78	12.001
185.00	11.159
185.21	12.917
185.43	9.183
185.65	11.408
185.86	21.505
186.08	17.449
186.29	20.478
186.51	18.909
186.72	24.792
186.94	27.806
187.15	20.939
187.37	30.132
187.58	34.448
187.80	34.086
188.02	28.262
188.23	19.096
188.45	20.100
188.66	26.149
188.88	14.204
189.09	13.581
189.31	15.194
189.52	13.497
189.74	11.640
189.95	9.760
190.17	11.709
190.38	12.303
190.60	18.970
190.82	20.900
191.03	21.294
191.25	28.331
191.46	21.218
191.68	19.051
191.89	26.334
192.11	27.119
192.32	27.042
192.54	25.701
192.75	24.220
192.97	29.941
193.18	23.132
193.40	25.500
193.61	28.841
193.83	40.400
194.04	39.916
194.26	38.341
194.48	41.140
194.69	37.176
194.91	32.843
195.12	30.534
195.34	16.475
195.55	26.881
195.77	27.022
195.98	29.080
196.20	21.160
196.41	23.518
196.63	27.479
196.84	27.460
197.06	33.152
197.27	33.767
197.49	34.327
197.70	35.823
197.92	32.232
198.13	30.518
198.35	25.979
198.56	21.100
198.78	14.946
198.99	12.972
199.21	0.110
199.42	-1.760
199.64	3.099
199.85	6.980
200.07	12.413
200.28	13.432
200.50	9.989
200.71	10.837
200.93	16.016
201.14	22.325
201.36	18.201
201.57	32.347
201.79	30.672
202.00	27.012
202.22	19.108
202.43	22.381
202.65	20.559
202.86	17.732
203.08	14.566
203.29	11.714
203.51	3.957
203.72	5.496
203.94	5.297
204.15	4.725
204.37	5.573
204.58	16.037
204.80	13.106
205.01	19.072
205.22	20.245
205.44	25.323
205.65	27.682
205.87	31.115
206.08	29.320
206.30	27.400
206.51	30.865
206.73	32.060
206.94	30.021
207.16	30.151
207.37	28.210
207.59	28.260
207.80	23.253
208.02	22.968
208.23	24.400
208.45	27.151
208.66	26.232
208.88	23.993
209.09	22.526
209.30	20.874
209.52	18.294
209.73	13.496
209.95	15.073
210.16	16.937
210.38	18.174
210.59	19.353
210.81	21.464
211.02	21.260
211.24	16.163
211.45	17.829
211.66	13.179
211.88	16.156
212.09	17.451
212.31	17.898
212.52	16.100
212.74	12.289
212.95	7.420
213.17	-0.242
213.38	-1.533
213.60	6.139
213.81	2.731
214.02	6.917
214.24	0.918
214.45	0.619
214.67	-1.594
214.88	-2.290
215.10	-0.997
215.31	5.358
215.53	11.077
215.74	12.191
215.95	12.113
216.17	8.244
216.38	6.295
216.60	9.137
216.81	8.245
217.03	8.204
217.24	10.292
217.45	14.572
217.67	14.532
217.88	10.610
218.10	14.673
218.31	16.894
218.53	21.374
218.74	20.266
218.95	19.132
219.17	18.827
219.38	20.094
219.60	20.490
219.81	17.330
220.03	12.229
220.24	14.391
220.45	11.543
220.67	6.459
220.88	6.622
221.10	7.418
221.31	8.482
221.53	9.348
221.74	8.606
221.95	7.136
222.17	6.376
222.38	7.255
222.60	8.283
222.81	8.919
223.02	11.846
223.24	12.350
223.45	13.314
223.67	12.102
223.88	12.139
224.09	10.999
224.31	12.918
224.52	12.921
224.74	12.544
224.95	10.474
225.16	10.106
225.38	8.805
225.59	7.996
225.81	6.798
226.02	7.706
226.23	8.230
226.45	8.720
226.66	7.408
226.88	6.798
227.09	6.757
227.30	6.480
227.52	5.834
227.73	5.350
227.95	5.055
228.16	4.922
228.37	4.826
228.59	4.564
228.80	4.465
229.02	4.635
229.23	4.649
229.44	4.729
229.66	4.853
229.87	4.862
230.08	4.834
230.30	4.871
230.51	4.881
230.73	4.905
230.94	4.937
231.15	5.232
231.37	5.044
231.58	5.458
231.80	5.202
232.01	4.834
232.22	5.213
232.44	5.758
232.65	5.703
232.86	6.166
233.08	5.603
233.29	5.182
233.51	4.684
233.72	5.085
233.93	4.736
234.15	5.127
234.36	5.353
234.57	5.232
234.79	5.247
235.00	5.411
235.21	5.184
235.43	5.841
235.64	6.295
235.86	6.763
236.07	6.104
236.28	6.379
236.50	5.987
236.71	6.048
236.92	6.052
237.14	5.460
237.35	5.714
237.56	5.904
237.78	5.391
237.99	5.700
238.20	5.241
238.42	6.059
238.63	5.354
238.84	5.643
239.06	5.497
239.27	5.125
239.48	5.208
239.70	4.791
239.91	4.840
240.13	4.900
240.34	4.177
240.55	4.205
240.77	3.924
240.98	4.008
241.19	4.082
241.41	3.854
241.62	4.045
241.83	4.231
242.05	4.278
242.26	4.297
242.47	4.213
242.69	4.505
242.90	4.687
243.11	4.500
243.33	4.567
243.54	4.535
243.75	4.846
243.97	4.865
244.18	4.678
244.39	4.859
244.61	4.846
244.82	5.085
245.03	4.741
245.24	4.327
245.46	4.591
245.67	4.449
245.88	4.520
246.10	4.377
246.31	4.223
246.52	4.285
246.74	4.278
246.95	4.276
247.16	4.323
247.38	4.340
247.59	4.372
247.80	4.377
248.02	4.411
248.23	4.344
248.44	4.296
248.66	4.318
248.87	4.396
249.08	4.423
249.29	4.313
249.51	4.286
249.72	4.357
249.93	4.410
250.15	4.429
250.36	4.487
250.57	4.700
250.79	5.145
251.00	5.303
251.21	5.097
251.42	4.623
251.64	4.961
251.85	4.851
252.06	4.815
252.28	4.861
252.49	4.830
252.70	4.926
252.91	5.021
253.13	4.836
253.34	4.785
253.55	4.843
253.77	5.337
253.98	5.219
254.19	5.568
254.40	5.811
254.62	5.795
254.83	5.963
255.04	5.634
255.26	5.121
255.47	5.444
255.68	5.632
255.89	5.577
256.11	4.846
256.32	4.689
256.53	4.356
256.75	4.218
256.96	4.281
257.17	4.173
257.38	4.422
257.60	4.571
257.81	4.638
258.02	4.414
258.23	4.337
258.45	4.541
258.66	4.445
258.87	4.262
259.09	4.189
259.30	4.107
259.51	4.147
259.72	4.110
259.94	4.123
260.15	4.092
260.36	4.162
260.57	4.087
260.79	4.090
261.00	4.126
261.21	4.154
261.42	4.200
261.64	4.265
261.85	4.457
262.06	4.587
262.27	4.652
262.49	4.604
262.70	4.599
262.91	4.842
263.12	4.822
263.34	4.855
263.55	5.015
263.76	4.969
263.97	4.857
264.19	4.608
264.40	4.307
264.61	4.161
264.82	4.115
265.04	4.037
265.25	3.746
265.46	3.521
265.67	3.533
265.88	3.178
266.10	3.021
266.31	3.161
266.52	3.164
266.73	3.219
266.95	3.337
267.16	3.396
267.37	3.311
267.58	3.426
267.80	3.445
268.01	3.265
268.22	3.529
268.43	3.662
268.64	3.543
268.86	3.449
269.07	3.513
269.28	3.344
269.49	3.421
269.71	3.515
269.92	3.571
270.13	3.642
270.34	3.829
270.55	3.819
270.77	3.761
270.98	3.834
271.19	3.818
271.40	3.863
271.61	4.033
271.83	3.809
272.04	3.844
272.25	3.871
272.46	3.927
272.68	3.907
272.89	3.863
273.10	3.891
273.31	3.830
273.52	3.865
273.74	3.720
273.95	3.668
274.16	3.719
274.37	3.602
274.58	3.518
274.80	3.428
275.01	3.509
275.22	3.472
275.43	3.443
275.64	3.483
275.86	3.483
276.07	3.498
276.28	3.556
276.49	3.578
276.70	3.754
276.91	3.632
277.13	3.713
277.34	3.596
277.55	3.675
277.76	3.595
277.97	3.556
278.19	3.531
278.40	3.724
278.61	3.651
278.82	3.699
279.03	3.533
279.24	3.799
279.46	3.755
279.67	3.717
279.88	3.506
280.09	3.638
280.30	3.527
280.52	3.505
280.73	3.370
280.94	3.310
281.15	3.298
281.36	3.268
281.57	2.981
281.79	3.032
282.00	3.155
282.21	3.390
282.42	3.441
282.63	3.509
282.84	3.580
283.06	3.685
283.27	3.709
283.48	3.688
283.69	3.754
283.90	3.946
284.11	3.918
284.32	3.816
284.54	3.750
284.75	3.667
284.96	3.736
285.17	3.657
285.38	3.681
285.59	3.693
285.81	3.673
286.02	3.824
286.23	3.784
286.44	3.833
286.65	3.834
286.86	3.710
287.07	3.739
287.29	3.814
287.50	3.874
287.71	3.867
287.92	3.820
288.13	3.854
288.34	3.601
288.55	3.619
288.77	3.517
288.98	3.612
289.19	3.729
289.40	3.774
289.61	3.704
289.82	3.718
290.03	3.664
290.24	3.899
290.46	3.966
290.67	4.094
290.88	4.044
291.09	4.183
291.30	4.167
291.51	4.164
291.72	4.093
291.93	4.116
292.15	4.265
292.36	4.221
292.57	4.089
292.78	3.998
292.99	3.842
293.20	3.911
293.41	3.921
293.62	4.056
293.84	4.133
294.05	4.246
294.26	4.189
294.47	4.055
294.68	4.140
294.89	4.185
295.10	4.209
295.31	4.405
295.52	4.470
295.73	4.369
295.95	4.276
296.16	4.302
296.37	4.290
296.58	4.376
296.79	4.440
297.00	4.532
297.21	4.515
297.42	4.574
297.63	4.566
297.84	4.576
298.06	4.637
298.27	4.616
298.48	4.649
298.69	4.671
298.90	4.581
299.11	4.627
299.32	4.494
299.53	4.502
299.74	4.512
299.95	4.593
300.16	4.501
300.38	4.523
300.59	4.645
300.80	4.662
301.01	4.591
301.22	4.776
301.43	4.737
301.64	4.786
301.85	4.803
302.06	4.876
302.27	4.771
302.48	4.795
302.69	4.788
302.91	4.827
303.12	4.787
303.33	4.939
303.54	4.886
303.75	4.958
303.96	5.093
304.17	5.093
304.38	4.962
304.59	5.012
304.80	5.138
305.01	5.196
305.22	5.293
305.43	5.394
305.64	5.351
305.85	5.427
306.06	5.347
306.28	5.273
306.49	5.220
306.70	5.321
306.91	5.325
307.12	5.384
307.33	5.391
307.54	5.199
307.75	5.135
307.96	5.173
308.17	5.201
308.38	5.302
308.59	5.377
308.80	5.519
309.01	5.578
309.22	5.567
309.43	5.426
309.64	5.363
309.85	5.433
310.06	5.463
310.27	5.440
310.48	5.463
310.70	5.431
310.91	5.416
311.12	5.476
311.33	5.468
311.54	5.490
311.75	5.560
311.96	5.514
312.17	5.514
312.38	5.576
312.59	5.622
312.80	5.617
313.01	5.741
313.22	5.827
313.43	5.809
313.64	5.749
313.85	5.799
314.06	5.751
314.27	5.932
314.48	6.012
314.69	6.071
314.90	6.097
315.11	6.172
315.32	6.117
315.53	6.123
315.74	6.152
315.95	6.327
316.16	6.293
316.37	6.462
316.58	6.478
316.79	6.503
317.00	6.488
317.21	6.546
317.42	6.485
317.63	6.386
317.84	6.405
318.05	6.413
318.26	6.304
318.47	6.382
318.68	6.387
318.89	6.377
319.10	6.420
319.31	6.422
319.52	6.455
319.73	6.496
319.94	6.539
320.15	6.567
320.36	6.510
320.57	6.573
320.78	6.623
320.99	6.569
321.20	6.654
321.41	6.692
321.62	6.743
321.83	6.702
322.04	6.727
322.25	6.806
322.46	6.865
322.67	7.067
322.88	7.075
323.09	7.138
323.30	7.207
323.51	7.196
323.72	7.110
323.93	7.010
324.14	7.024
324.35	7.032
324.56	7.007
324.77	6.902
324.98	6.765
325.19	6.773
325.40	6.680
325.61	6.746
325.82	6.775
326.03	6.825
326.24	6.885
326.45	6.930
326.65	7.011
326.86	7.043
327.07	7.123
327.28	7.196
327.49	7.206
327.70	7.278
327.91	7.208
328.12	7.188
328.33	7.165
328.54	7.210
328.75	7.285
328.96	7.325
329.17	7.355
329.38	7.345
329.59	7.357
329.80	7.475
330.01	7.513
330.22	7.512
330.43	7.607
330.64	7.679
330.85	7.694
331.05	7.631
331.26	7.606
331.47	7.633
331.68	7.683
331.89	7.641
332.10	7.643
332.31	7.659
332.52	7.676
332.73	7.652
332.94	7.710
333.15	7.725
333.36	7.701
333.57	7.728
333.78	7.655
333.99	7.641
334.19	7.705
334.40	7.721
334.61	7.678
334.82	7.761
335.03	7.783
335.24	7.801
335.45	7.815
335.66	7.898
335.87	7.885
336.08	7.981
336.29	8.016
336.50	8.032
336.71	8.002
336.91	8.063
337.12	8.064
337.33	8.016
337.54	7.988
337.75	7.988
337.96	8.055
338.17	8.042
338.38	8.081
338.59	8.085
338.80	8.119
339.01	8.160
339.21	8.119
339.42	8.076
339.63	8.085
339.84	8.000
340.05	8.004
340.26	8.034
340.47	8.050
340.68	8.060
340.89	8.110
341.10	8.108
341.30	8.090
341.51	8.189
341.72	8.247
341.93	8.310
342.14	8.450
342.35	8.500
342.56	8.433
342.77	8.484
342.98	8.485
343.18	8.431
343.39	8.417
343.60	8.403
343.81	8.341
344.02	8.366
344.23	8.341
344.44	8.263
344.65	8.259
344.85	8.302
345.06	8.321
345.27	8.338
345.48	8.345
345.69	8.293
345.90	8.298
346.11	8.322
346.32	8.342
346.52	8.413
346.73	8.515
346.94	8.573
347.15	8.509
347.36	8.513
347.57	8.489
347.78	8.490
347.98	8.629
348.19	8.724
348.40	8.770
348.61	8.720
348.82	8.694
349.03	8.669
349.24	8.679
349.44	8.764
349.65	8.782
349.86	8.811
350.07	8.938
350.28	8.946
350.49	8.968
350.70	8.938
350.90	8.989
351.11	9.000
351.32	9.000
351.53	9.036
351.74	9.064
351.95	9.032
352.15	9.061
352.36	9.027
352.57	9.023
352.78	8.998
352.99	9.020
353.20	9.058
353.40	9.097
353.61	9.130
353.82	9.078
354.03	9.097
354.24	9.173
354.45	9.226
354.65	9.233
354.86	9.225
355.07	9.287
355.28	9.342
355.49	9.368
355.70	9.435
355.90	9.414
356.11	9.441
356.32	9.401
356.53	9.409
356.74	9.394
356.94	9.496
357.15	9.483
357.36	9.452
357.57	9.467
357.78	9.501
357.99	9.443
358.19	9.526
358.40	9.529
358.61	9.607
358.82	9.600
359.03	9.608
359.23	9.531
359.44	9.635
359.65	9.656
359.86	9.660
360.07	9.635
360.27	9.679
360.48	9.648
360.69	9.682
360.90	9.694
361.11	9.751
361.31	9.775
361.52	9.793
361.73	9.749
361.94	9.784
362.15	9.790
362.35	9.851
362.56	9.863
362.77	9.901
362.98	9.942
363.18	9.947
363.39	9.970
363.60	10.034
363.81	10.075
364.02	10.059
364.22	10.080
364.43	10.151
364.64	10.143
364.85	10.187
365.05	10.185
365.26	10.244
365.47	10.240
365.68	10.253
365.89	10.259
366.09	10.279
366.30	10.361
366.51	10.332
366.72	10.305
366.92	10.343
367.13	10.328
367.34	10.365
367.55	10.315
367.75	10.368
367.96	10.397
368.17	10.425
368.38	10.468
368.58	10.474
368.79	10.517
369.00	10.536
369.21	10.541
369.41	10.602
369.62	10.648
369.83	10.688
370.04	10.723
370.24	10.722
370.45	10.692
370.66	10.721
370.87	10.762
371.07	10.813
371.28	10.843
371.49	10.875
371.70	10.863
371.90	10.886
372.11	10.879
372.32	10.881
372.53	10.871
372.73	10.924
372.94	10.913
373.15	10.932
373.36	10.973
373.56	11.012
373.77	11.016
373.98	11.054
374.19	11.037
374.39	11.085
374.60	11.140
374.81	11.176
375.01	11.201
375.22	11.238
375.43	11.269
375.64	11.285
375.84	11.273
376.05	11.328
376.26	11.376
376.46	11.462
376.67	11.490
376.88	11.502
377.09	11.517
377.29	11.538
377.50	11.564
377.71	11.611
377.91	11.625
378.12	11.647
378.33	11.605
378.54	11.607
378.74	11.569
378.95	11.597
379.16	11.550
379.36	11.557
379.57	11.600
379.78	11.600
379.99	11.602
380.19	11.620
380.40	11.656
380.61	11.693
380.81	11.721
381.02	11.767
381.23	11.795
381.43	11.843
381.64	11.912
381.85	11.917
382.05	11.948
382.26	11.987
382.47	11.971
382.67	12.031
382.88	12.074
383.09	12.079
383.30	12.092
383.50	12.108
383.71	12.197
383.92	12.224
384.12	12.249
384.33	12.269
384.54	12.247
384.74	12.301
384.95	12.295
385.16	12.323
385.36	12.325
385.57	12.355
385.78	12.345
385.98	12.345
386.19	12.363
386.40	12.397
386.60	12.425
386.81	12.459
387.02	12.466
387.22	12.505
387.43	12.533
387.64	12.588
387.84	12.638
388.05	12.696
388.26	12.713
388.46	12.739
388.67	12.754
388.88	12.774
389.08	12.830
389.29	12.855
389.49	12.891
389.70	12.895
389.91	12.913
390.11	12.920
390.32	12.934
390.53	12.937
390.73	12.936
390.94	12.946
391.15	12.944
391.35	12.925
391.56	12.990
391.77	12.975
391.97	12.987
392.18	13.008
392.38	12.997
392.59	13.025
392.80	13.070
393.00	13.118
393.21	13.156
393.42	13.201
393.62	13.237
393.83	13.235
394.04	13.263
394.24	13.320
394.45	13.338
394.65	13.378
394.86	13.380
395.07	13.417
395.27	13.418
395.48	13.432
395.68	13.475
395.89	13.505
396.10	13.545
396.30	13.591
396.51	13.592
396.72	13.614
396.92	13.662
397.13	13.690
397.33	13.712
397.54	13.762
397.75	13.774
397.95	13.798
398.16	13.806
398.36	13.815
398.57	13.852
398.78	13.861
398.98	13.904
399.19	13.932
399.39	13.958
399.60	13.967
399.81	13.957
400.01	14.006
400.22	14.007
400.42	14.029
400.63	14.041
400.84	14.072
401.04	14.110
401.25	14.100
401.45	14.085
401.66	14.111
401.86	14.128
402.07	14.173
402.28	14.173
402.48	14.208
402.69	14.275
402.89	14.302
403.10	14.286
403.31	14.303
403.51	14.345
403.72	14.378
403.92	14.413
404.13	14.433
404.33	14.477
404.54	14.492
404.75	14.522
404.95	14.523
405.16	14.524
405.36	14.560
405.57	14.590
405.77	14.608
405.98	14.631
406.18	14.649
406.39	14.688
406.60	14.684
406.80	14.725
407.01	14.728
407.21	14.741
407.42	14.797
407.62	14.808
407.83	14.833
408.03	14.912
408.24	14.955
408.45	14.987
408.65	14.992
408.86	15.040
409.06	15.073
409.27	15.122
409.47	15.162
409.68	15.207
409.88	15.241
410.09	15.248
410.29	15.240
410.50	15.238
410.71	15.271
410.91	15.264
411.12	15.289
411.32	15.297
411.53	15.290
411.73	15.320
411.94	15.357
412.14	15.388
412.35	15.429
412.55	15.469
412.76	15.504
412.96	15.519
413.17	15.582
413.37	15.606
413.58	15.669
413.78	15.739
413.99	15.738
414.19	15.711
414.40	15.719
414.61	15.742
414.81	15.739
415.02	15.731
415.22	15.747
415.43	15.729
415.63	15.704
415.84	15.704
416.04	15.701
416.25	15.724
416.45	15.758
416.66	15.783
416.86	15.819
417.07	15.831
417.27	15.872
417.48	15.882
417.68	15.944
417.89	15.994
418.09	15.997
418.30	16.015
418.50	16.033
418.71	16.041
418.91	16.061
419.12	16.059
419.32	16.075
419.53	16.082
419.73	16.112
419.94	16.090
420.14	16.112
420.34	16.137
420.55	16.146
420.75	16.188
420.96	16.218
421.16	16.223
421.37	16.237
421.57	16.259
421.78	16.291
421.98	16.303
422.19	16.356
422.39	16.372
422.60	16.374
422.80	16.413
423.01	16.412
423.21	16.433
423.42	16.471
423.62	16.487
423.83	16.507
424.03	16.542
424.23	16.569
424.44	16.567
424.64	16.593
424.85	16.641
425.05	16.659
425.26	16.702
425.46	16.727
425.67	16.746
425.87	16.792
426.08	16.834
426.28	16.865
426.48	16.888
426.69	16.941
426.89	16.973
427.10	16.993
427.30	17.036
427.51	17.044
427.71	17.071
427.92	17.109
428.12	17.140
428.32	17.151
428.53	17.146
428.73	17.180
428.94	17.206
429.14	17.209
429.35	17.236
429.55	17.251
429.76	17.295
429.96	17.306
430.16	17.296
430.37	17.336
430.57	17.352
430.78	17.362
430.98	17.368
431.19	17.372
431.39	17.394
431.59	17.416
431.80	17.421
432.00	17.410
432.21	17.421
432.41	17.424
432.61	17.386
432.82	17.414
433.02	17.432
433.23	17.447
433.43	17.452
433.64	17.451
433.84	17.440
434.04	17.467
434.25	17.493
434.45	17.528
434.66	17.593
434.86	17.640
435.06	17.664
435.27	17.703
435.47	17.725
435.68	17.785
435.88	17.829
436.08	17.854
436.29	17.855
436.49	17.863
436.70	17.867
436.90	17.867
437.10	17.894
437.31	17.897
437.51	17.907
437.71	17.943
437.92	17.917
438.12	17.910
438.33	17.926
438.53	17.951
438.73	17.976
438.94	17.991
439.14	18.018
439.35	18.051
439.55	18.072
439.75	18.074
439.96	18.084
440.16	18.127
440.36	18.146
440.57	18.181
440.77	18.190
440.97	18.223
441.18	18.244
441.38	18.248
441.59	18.253
441.79	18.291
441.99	18.321
442.20	18.335
442.40	18.361
442.60	18.408
442.81	18.418
443.01	18.444
443.21	18.426
443.42	18.455
443.62	18.465
443.83	18.481
444.03	18.485
444.23	18.494
444.44	18.503
444.64	18.498
444.84	18.509
445.05	18.519
445.25	18.528
445.45	18.540
445.66	18.530
445.86	18.551
446.06	18.550
446.27	18.561
446.47	18.571
446.67	18.591
446.88	18.627
447.08	18.640
447.28	18.651
447.49	18.683
447.69	18.721
447.89	18.756
448.10	18.773
448.30	18.825
448.50	18.856
448.71	18.900
448.91	18.925
449.11	18.916
449.32	18.967
449.52	19.025
449.72	19.049
449.93	19.067
450.13	19.086
450.33	19.105
450.53	19.128
450.74	19.144
450.94	19.149
451.14	19.161
451.35	19.181
451.55	19.171
451.75	19.187
451.96	19.190
452.16	19.175
452.36	19.190
452.57	19.220
452.77	19.225
452.97	19.237
453.17	19.250
453.38	19.267
453.58	19.300
453.78	19.324
453.99	19.308
454.19	19.329
454.39	19.354
454.59	19.376
454.80	19.413
455.00	19.421
455.20	19.451
455.41	19.466
455.61	19.504
455.81	19.514
456.01	19.528
456.22	19.575
456.42	19.584
456.62	19.621
456.83	19.648
457.03	19.645
457.23	19.665
457.43	19.669
457.64	19.669
457.84	19.671
458.04	19.676
458.25	19.688
458.45	19.704
458.65	19.703
458.85	19.723
459.06	19.711
459.26	19.714
459.46	19.720
459.66	19.718
459.87	19.748
460.07	19.751
460.27	19.776
460.47	19.777
460.68	19.776
460.88	19.801
461.08	19.811
461.28	19.858
461.49	19.884
461.69	19.923
461.89	19.954
462.09	19.968
462.30	20.003
462.50	20.025
462.70	20.058
462.90	20.089
463.11	20.120
463.31	20.132
463.51	20.135
463.71	20.134
463.92	20.151
464.12	20.182
464.32	20.218
464.52	20.230
464.72	20.239
464.93	20.248
465.13	20.278
465.33	20.285
465.53	20.283
465.74	20.284
465.94	20.297
466.14	20.316
466.34	20.313
466.54	20.312
466.75	20.318
466.95	20.338
467.15	20.354
467.35	20.349
467.56	20.358
467.76	20.396
467.96	20.416
468.16	20.461
468.36	20.450
468.57	20.454
468.77	20.453
468.97	20.471
469.17	20.472
469.37	20.487
469.58	20.507
469.78	20.515
469.98	20.524
470.18	20.557
470.38	20.560
470.59	20.598
470.79	20.623
470.99	20.675
471.19	20.684
471.39	20.706
471.60	20.723
471.80	20.737
472.00	20.766
472.20	20.777
472.40	20.779
472.61	20.786
472.81	20.776
473.01	20.788
473.21	20.787
473.41	20.806
473.61	20.832
473.82	20.846
474.02	20.874
474.22	20.904
474.42	20.920
474.62	20.962
474.82	20.980
475.03	21.022
475.23	21.050
475.43	21.090
475.63	21.097
475.83	21.102
476.03	21.134
476.24	21.127
476.44	21.116
476.64	21.135
476.84	21.141
477.04	21.162
477.24	21.164
477.45	21.178
477.65	21.169
477.85	21.184
478.05	21.185
478.25	21.190
478.45	21.210
478.65	21.230
478.86	21.247
479.06	21.241
