OOIBase32 Version 2.0.6.5 Data File
++++++++++++++++++++++++++++++++++++
Date: 03-23-2011, 12:16:05
User: Valued Ocean Optics Customer
Spectrometer Serial Number: USB4C01507
Spectrometer Channel: Master
Integration Time (msec): 62
Spectra Averaged: 20
Boxcar Smoothing: 5
Correct for Electrical Dark: Enabled
Time Normalized: Disabled
Dual-beam Reference: Disabled
Reference Channel: Master
Temperature: Not acquired
Spectrometer Type: S4000
ADC Type: USB4000
Number of Pixels in File: 3648
Graph Title: 
>>>>>Begin Spectral Data<<<<<
178.53	47.711
178.74	2067.958
178.96	3.039
179.18	265.002
179.39	-303.016
179.61	-63.061
179.82	-190.286
180.04	151.905
180.25	99.407
180.47	-59.318
180.69	-956.702
180.90	4.784
181.12	-83.969
181.33	-16681.338
181.55	178.900
181.76	-34.289
181.98	-83.969
182.20	89.822
182.41	19.679
182.63	20.827
182.84	25.320
183.06	30.427
183.27	30.314
183.49	36.136
183.71	37.671
183.92	39.829
184.14	38.018
184.35	27.208
184.57	28.934
184.78	36.051
185.00	31.224
185.21	33.820
185.43	28.784
185.65	34.948
185.86	31.455
186.08	30.629
186.29	30.261
186.51	29.297
186.72	35.313
186.94	29.430
187.15	22.921
187.37	26.821
187.58	33.062
187.80	36.077
188.02	23.712
188.23	27.950
188.45	27.605
188.66	24.121
188.88	23.244
189.09	17.653
189.31	19.622
189.52	19.853
189.74	18.280
189.95	14.840
190.17	17.054
190.38	18.659
190.60	11.067
190.82	12.161
191.03	17.503
191.25	20.917
191.46	21.343
191.68	21.474
191.89	26.447
192.11	32.537
192.32	30.517
192.54	36.285
192.75	33.513
192.97	41.031
193.18	39.237
193.40	42.881
193.61	43.659
193.83	37.760
194.04	38.328
194.26	31.451
194.48	24.276
194.69	33.118
194.91	27.868
195.12	23.200
195.34	22.959
195.55	29.081
195.77	29.604
195.98	34.100
196.20	39.251
196.41	38.772
196.63	39.324
196.84	36.741
197.06	28.806
197.27	25.211
197.49	31.635
197.70	26.849
197.92	19.065
198.13	9.300
198.35	-2.545
198.56	-2.353
198.78	-2.677
198.99	-2.780
199.21	-5.807
199.42	-4.538
199.64	0.866
199.85	-2.147
200.07	-6.295
200.28	0.665
200.50	8.267
200.71	7.319
200.93	12.391
201.14	16.894
201.36	21.086
201.57	24.676
201.79	30.065
202.00	33.597
202.22	33.377
202.43	37.209
202.65	38.058
202.86	30.062
203.08	26.231
203.29	24.877
203.51	15.934
203.72	15.426
203.94	21.805
204.15	17.459
204.37	9.572
204.58	14.111
204.80	16.796
205.01	17.650
205.22	16.754
205.44	21.729
205.65	17.689
205.87	25.918
206.08	22.836
206.30	20.759
206.51	19.754
206.73	22.451
206.94	22.543
207.16	20.950
207.37	17.072
207.59	21.302
207.80	21.697
208.02	26.832
208.23	24.705
208.45	24.780
208.66	22.124
208.88	22.694
209.09	20.690
209.30	19.794
209.52	12.480
209.73	13.487
209.95	14.417
210.16	13.797
210.38	13.900
210.59	15.565
210.81	15.613
211.02	16.739
211.24	16.451
211.45	20.342
211.66	18.027
211.88	22.370
212.09	20.654
212.31	22.424
212.52	20.066
212.74	18.436
212.95	15.269
213.17	17.297
213.38	17.553
213.60	18.036
213.81	15.101
214.02	18.333
214.24	13.337
214.45	13.371
214.67	10.697
214.88	12.159
215.10	8.844
215.31	12.121
215.53	14.032
215.74	10.277
215.95	10.809
216.17	8.842
216.38	10.575
216.60	16.454
216.81	19.092
217.03	15.671
217.24	13.696
217.45	15.107
217.67	14.760
217.88	13.486
218.10	13.003
218.31	13.076
218.53	13.145
218.74	9.561
218.95	5.757
219.17	4.496
219.38	7.069
219.60	10.729
219.81	12.372
220.03	9.776
220.24	10.109
220.45	12.544
220.67	9.643
220.88	11.001
221.10	11.858
221.31	13.736
221.53	13.799
221.74	13.276
221.95	10.627
222.17	11.894
222.38	12.016
222.60	12.467
222.81	13.193
223.02	14.768
223.24	15.245
223.45	14.792
223.67	12.865
223.88	11.989
224.09	12.207
224.31	14.406
224.52	13.082
224.74	12.403
224.95	11.552
225.16	11.423
225.38	10.801
225.59	10.091
225.81	10.205
226.02	11.662
226.23	12.255
226.45	10.774
226.66	9.367
226.88	8.586
227.09	8.109
227.30	7.352
227.52	6.105
227.73	5.306
227.95	4.783
228.16	4.435
228.37	4.006
228.59	3.968
228.80	4.076
229.02	4.158
229.23	4.054
229.44	4.185
229.66	4.188
229.87	4.219
230.08	4.273
230.30	4.382
230.51	4.261
230.73	4.290
230.94	4.151
231.15	4.444
231.37	4.413
231.58	4.606
231.80	4.409
232.01	4.366
232.22	5.035
232.44	5.218
232.65	4.870
232.86	5.406
233.08	5.757
233.29	5.500
233.51	5.027
233.72	5.290
233.93	5.093
234.15	4.917
234.36	4.956
234.57	4.216
234.79	4.296
235.00	4.256
235.21	4.336
235.43	4.514
235.64	4.669
235.86	4.940
236.07	4.848
236.28	5.412
236.50	5.641
236.71	5.843
236.92	6.731
237.14	6.213
237.35	6.625
237.56	6.530
237.78	6.157
237.99	6.766
238.20	7.002
238.42	7.255
238.63	6.754
238.84	6.204
239.06	6.237
239.27	5.261
239.48	5.258
239.70	5.361
239.91	5.228
240.13	5.295
240.34	4.837
240.55	4.520
240.77	4.267
240.98	4.170
241.19	4.292
241.41	4.095
241.62	4.038
241.83	4.374
242.05	4.231
242.26	4.196
242.47	4.104
242.69	4.273
242.90	4.288
243.11	4.010
243.33	3.980
243.54	4.126
243.75	4.192
243.97	4.419
244.18	4.169
244.39	4.289
244.61	4.377
244.82	4.490
245.03	3.960
245.24	4.040
245.46	4.323
245.67	4.631
245.88	4.663
246.10	4.550
246.31	4.381
246.52	4.331
246.74	4.261
246.95	4.225
247.16	4.243
247.38	4.297
247.59	4.284
247.80	4.330
248.02	4.300
248.23	4.214
248.44	4.165
248.66	4.159
248.87	4.304
249.08	4.444
249.29	4.479
249.51	4.590
249.72	4.704
249.93	4.740
250.15	4.928
250.36	4.992
250.57	5.108
250.79	5.288
251.00	5.666
251.21	5.346
251.42	4.839
251.64	4.904
251.85	4.758
252.06	4.531
252.28	4.582
252.49	4.576
252.70	4.608
252.91	4.738
253.13	4.908
253.34	4.687
253.55	4.836
253.77	5.327
253.98	5.449
254.19	5.820
254.40	6.318
254.62	6.176
254.83	6.040
255.04	6.077
255.26	5.943
255.47	5.903
255.68	5.961
255.89	5.841
256.11	5.039
256.32	4.632
256.53	4.360
256.75	4.231
256.96	4.220
257.17	4.172
257.38	4.143
257.60	3.948
257.81	3.969
258.02	3.982
258.23	3.977
258.45	4.120
258.66	4.113
258.87	4.065
259.09	3.944
259.30	3.887
259.51	3.881
259.72	3.866
259.94	3.882
260.15	3.738
260.36	3.762
260.57	3.681
260.79	3.709
261.00	3.795
261.21	3.772
261.42	3.836
261.64	3.967
261.85	4.087
262.06	4.208
262.27	4.245
262.49	4.598
262.70	4.514
262.91	4.723
263.12	4.848
263.34	4.786
263.55	4.697
263.76	4.766
263.97	4.606
264.19	4.581
264.40	4.451
264.61	4.448
264.82	4.318
265.04	4.306
265.25	4.173
265.46	4.001
265.67	3.892
265.88	3.838
266.10	3.538
266.31	3.651
266.52	3.455
266.73	3.462
266.95	3.467
267.16	3.461
267.37	3.379
267.58	3.285
267.80	3.302
268.01	3.341
268.22	3.480
268.43	3.495
268.64	3.390
268.86	3.518
269.07	3.527
269.28	3.384
269.49	3.405
269.71	3.541
269.92	3.681
270.13	3.731
270.34	3.766
270.55	3.752
270.77	3.898
270.98	4.002
271.19	3.997
271.40	4.072
271.61	4.284
271.83	4.303
272.04	4.240
272.25	4.244
272.46	4.210
272.68	4.219
272.89	4.123
273.10	4.071
273.31	4.134
273.52	4.069
273.74	3.936
273.95	3.945
274.16	3.818
274.37	3.876
274.58	3.892
274.80	3.821
275.01	3.767
275.22	3.896
275.43	3.831
275.64	3.623
275.86	3.506
276.07	3.576
276.28	3.578
276.49	3.693
276.70	3.822
276.91	3.800
277.13	3.834
277.34	3.773
277.55	3.820
277.76	3.788
277.97	3.900
278.19	4.067
278.40	4.074
278.61	4.042
278.82	3.971
279.03	3.926
279.24	3.903
279.46	3.838
279.67	3.971
279.88	3.783
280.09	3.932
280.30	3.849
280.52	3.766
280.73	3.689
280.94	3.701
281.15	3.712
281.36	3.643
281.57	3.489
281.79	3.590
282.00	3.675
282.21	3.842
282.42	3.798
282.63	3.889
282.84	3.967
283.06	4.054
283.27	3.974
283.48	3.989
283.69	3.905
283.90	3.888
284.11	3.907
284.32	3.791
284.54	3.782
284.75	3.917
284.96	3.771
285.17	3.763
285.38	3.825
285.59	3.887
285.81	3.831
286.02	3.931
286.23	4.056
286.44	4.045
286.65	3.912
286.86	3.896
287.07	3.852
287.29	3.912
287.50	3.849
287.71	3.777
287.92	3.717
288.13	3.682
288.34	3.543
288.55	3.536
288.77	3.490
288.98	3.572
289.19	3.492
289.40	3.432
289.61	3.487
289.82	3.524
290.03	3.494
290.24	3.541
290.46	3.682
290.67	3.711
290.88	3.724
291.09	3.891
291.30	3.926
291.51	3.894
291.72	3.903
291.93	3.925
292.15	3.922
292.36	3.946
292.57	3.936
292.78	3.891
292.99	3.818
293.20	3.732
293.41	3.685
293.62	3.773
293.84	3.943
294.05	4.011
294.26	4.121
294.47	4.130
294.68	4.086
294.89	4.130
295.10	4.157
295.31	4.253
295.52	4.328
295.73	4.268
295.95	4.190
296.16	4.234
296.37	4.307
296.58	4.203
296.79	4.187
297.00	4.292
297.21	4.266
297.42	4.300
297.63	4.313
297.84	4.350
298.06	4.321
298.27	4.452
298.48	4.467
298.69	4.453
298.90	4.489
299.11	4.654
299.32	4.555
299.53	4.691
299.74	4.709
299.95	4.853
300.16	4.868
300.38	4.951
300.59	4.863
300.80	4.810
301.01	4.700
301.22	4.786
301.43	4.698
301.64	4.776
301.85	4.702
302.06	4.732
302.27	4.721
302.48	4.687
302.69	4.724
302.91	4.756
303.12	4.669
303.33	4.748
303.54	4.710
303.75	4.822
303.96	4.854
304.17	4.887
304.38	4.863
304.59	4.854
304.80	4.995
305.01	4.902
305.22	4.943
305.43	5.187
305.64	5.249
305.85	5.399
306.06	5.338
306.28	5.445
306.49	5.405
306.70	5.485
306.91	5.457
307.12	5.464
307.33	5.537
307.54	5.519
307.75	5.391
307.96	5.347
308.17	5.232
308.38	5.408
308.59	5.416
308.80	5.412
309.01	5.408
309.22	5.488
309.43	5.282
309.64	5.242
309.85	5.332
310.06	5.356
310.27	5.434
310.48	5.459
310.70	5.318
310.91	5.301
311.12	5.362
311.33	5.369
311.54	5.379
311.75	5.557
311.96	5.621
312.17	5.573
312.38	5.633
312.59	5.643
312.80	5.626
313.01	5.707
313.22	5.809
313.43	5.942
313.64	5.981
313.85	5.903
314.06	5.896
314.27	6.007
314.48	6.009
314.69	6.028
314.90	6.013
315.11	6.125
315.32	6.104
315.53	6.081
315.74	6.029
315.95	6.034
316.16	6.131
316.37	6.153
316.58	6.141
316.79	6.212
317.00	6.332
317.21	6.415
317.42	6.417
317.63	6.490
317.84	6.367
318.05	6.392
318.26	6.423
318.47	6.439
318.68	6.441
318.89	6.368
319.10	6.391
319.31	6.308
319.52	6.313
319.73	6.371
319.94	6.305
320.15	6.490
320.36	6.507
320.57	6.581
320.78	6.624
320.99	6.728
321.20	6.856
321.41	6.849
321.62	6.903
321.83	6.809
322.04	6.796
322.25	6.861
322.46	6.882
322.67	6.951
322.88	6.916
323.09	6.986
323.30	6.952
323.51	7.008
323.72	6.987
323.93	6.959
324.14	7.041
324.35	7.017
324.56	7.096
324.77	7.039
324.98	7.001
325.19	7.020
325.40	6.900
325.61	6.916
325.82	6.933
326.03	7.050
326.24	7.027
326.45	7.045
326.65	7.070
326.86	7.112
327.07	7.196
327.28	7.182
327.49	7.124
327.70	7.257
327.91	7.176
328.12	7.140
328.33	7.144
328.54	7.232
328.75	7.279
328.96	7.384
329.17	7.271
329.38	7.270
329.59	7.299
329.80	7.471
330.01	7.528
330.22	7.641
330.43	7.690
330.64	7.697
330.85	7.655
331.05	7.613
331.26	7.603
331.47	7.684
331.68	7.626
331.89	7.680
332.10	7.673
332.31	7.648
332.52	7.634
332.73	7.603
332.94	7.609
333.15	7.679
333.36	7.751
333.57	7.752
333.78	7.691
333.99	7.795
334.19	7.835
334.40	7.859
334.61	7.834
334.82	7.922
335.03	8.009
335.24	8.041
335.45	8.023
335.66	8.114
335.87	8.121
336.08	8.207
336.29	8.219
336.50	8.194
336.71	8.116
336.91	8.179
337.12	8.091
337.33	8.099
337.54	8.136
337.75	8.166
337.96	8.123
338.17	8.141
338.38	8.162
338.59	8.209
338.80	8.261
339.01	8.312
339.21	8.282
339.42	8.273
339.63	8.149
339.84	8.060
340.05	8.059
340.26	8.094
340.47	8.063
340.68	8.063
340.89	8.056
341.10	8.081
341.30	8.115
341.51	8.189
341.72	8.301
341.93	8.424
342.14	8.465
342.35	8.489
342.56	8.483
342.77	8.513
342.98	8.509
343.18	8.489
343.39	8.467
343.60	8.469
343.81	8.414
344.02	8.414
344.23	8.338
344.44	8.373
344.65	8.374
344.85	8.409
345.06	8.418
345.27	8.471
345.48	8.429
345.69	8.421
345.90	8.464
346.11	8.491
346.32	8.424
346.52	8.518
346.73	8.539
346.94	8.618
347.15	8.607
347.36	8.638
347.57	8.677
347.78	8.723
347.98	8.769
348.19	8.820
348.40	8.854
348.61	8.962
348.82	8.983
349.03	9.011
349.24	8.970
349.44	9.036
349.65	9.084
349.86	9.075
350.07	9.112
350.28	9.144
350.49	9.159
350.70	9.212
350.90	9.150
351.11	9.131
351.32	9.163
351.53	9.260
351.74	9.248
351.95	9.266
352.15	9.247
352.36	9.243
352.57	9.254
352.78	9.228
352.99	9.162
353.20	9.264
353.40	9.348
353.61	9.423
353.82	9.357
354.03	9.377
354.24	9.347
354.45	9.405
354.65	9.448
354.86	9.507
355.07	9.535
355.28	9.587
355.49	9.623
355.70	9.676
355.90	9.589
356.11	9.639
356.32	9.594
356.53	9.650
356.74	9.662
356.94	9.735
357.15	9.698
357.36	9.697
357.57	9.713
357.78	9.708
357.99	9.592
358.19	9.671
358.40	9.685
358.61	9.793
358.82	9.798
359.03	9.785
359.23	9.751
359.44	9.785
359.65	9.807
359.86	9.871
360.07	9.866
360.27	9.921
360.48	9.928
360.69	9.937
360.90	9.899
361.11	9.917
361.31	9.987
361.52	10.022
361.73	10.016
361.94	10.001
362.15	10.001
362.35	10.070
362.56	10.112
362.77	10.092
362.98	10.098
363.18	10.124
363.39	10.149
363.60	10.166
363.81	10.181
364.02	10.220
364.22	10.298
364.43	10.353
364.64	10.293
364.85	10.317
365.05	10.377
365.26	10.425
365.47	10.431
365.68	10.434
365.89	10.452
366.09	10.451
366.30	10.496
366.51	10.468
366.72	10.472
366.92	10.544
367.13	10.519
367.34	10.515
367.55	10.523
367.75	10.572
367.96	10.600
368.17	10.633
368.38	10.696
368.58	10.700
368.79	10.760
369.00	10.759
369.21	10.770
369.41	10.824
369.62	10.825
369.83	10.867
370.04	10.922
370.24	10.946
370.45	10.929
370.66	10.968
370.87	11.008
371.07	11.064
371.28	11.055
371.49	11.070
371.70	11.074
371.90	11.146
372.11	11.173
372.32	11.189
372.53	11.202
372.73	11.244
372.94	11.257
373.15	11.243
373.36	11.224
373.56	11.308
373.77	11.366
373.98	11.422
374.19	11.407
374.39	11.384
374.60	11.412
374.81	11.427
375.01	11.440
375.22	11.473
375.43	11.530
375.64	11.602
375.84	11.601
376.05	11.625
376.26	11.636
376.46	11.694
376.67	11.726
376.88	11.718
377.09	11.783
377.29	11.815
377.50	11.793
377.71	11.802
377.91	11.802
378.12	11.850
378.33	11.839
378.54	11.905
378.74	11.915
378.95	11.953
379.16	11.966
379.36	11.956
379.57	12.001
379.78	12.034
379.99	12.048
380.19	12.053
380.40	12.050
380.61	12.054
380.81	12.050
381.02	12.119
381.23	12.170
381.43	12.239
381.64	12.301
381.85	12.291
382.05	12.316
382.26	12.369
382.47	12.395
382.67	12.455
382.88	12.509
383.09	12.561
383.30	12.507
383.50	12.501
383.71	12.517
383.92	12.521
384.12	12.560
384.33	12.595
384.54	12.624
384.74	12.683
384.95	12.664
385.16	12.681
385.36	12.669
385.57	12.736
385.78	12.793
385.98	12.804
386.19	12.864
386.40	12.904
386.60	12.925
386.81	12.911
387.02	12.906
387.22	12.956
387.43	12.961
387.64	13.023
387.84	13.046
388.05	13.053
388.26	13.086
388.46	13.095
388.67	13.125
388.88	13.158
389.08	13.212
389.29	13.225
389.49	13.253
389.70	13.295
389.91	13.334
390.11	13.346
390.32	13.364
390.53	13.383
390.73	13.351
390.94	13.376
391.15	13.381
391.35	13.426
391.56	13.495
391.77	13.517
391.97	13.539
392.18	13.516
392.38	13.528
392.59	13.575
392.80	13.612
393.00	13.693
393.21	13.705
393.42	13.737
393.62	13.742
393.83	13.736
394.04	13.744
394.24	13.779
394.45	13.814
394.65	13.869
394.86	13.846
395.07	13.869
395.27	13.885
395.48	13.900
395.68	13.944
395.89	13.981
396.10	14.010
396.30	14.060
396.51	14.110
396.72	14.144
396.92	14.160
397.13	14.213
397.33	14.227
397.54	14.267
397.75	14.311
397.95	14.340
398.16	14.329
398.36	14.381
398.57	14.411
398.78	14.412
398.98	14.433
399.19	14.453
399.39	14.460
399.60	14.497
399.81	14.481
400.01	14.521
400.22	14.522
400.42	14.554
400.63	14.545
400.84	14.587
401.04	14.633
401.25	14.643
401.45	14.681
401.66	14.746
401.86	14.772
402.07	14.844
402.28	14.859
402.48	14.918
402.69	14.972
402.89	15.011
403.10	14.989
403.31	15.014
403.51	15.055
403.72	15.068
403.92	15.106
404.13	15.143
404.33	15.174
404.54	15.166
404.75	15.159
404.95	15.173
405.16	15.182
405.36	15.217
405.57	15.220
405.77	15.254
405.98	15.271
406.18	15.274
406.39	15.291
406.60	15.296
406.80	15.378
407.01	15.419
407.21	15.458
407.42	15.504
407.62	15.551
407.83	15.585
408.03	15.608
408.24	15.654
408.45	15.668
408.65	15.691
408.86	15.721
409.06	15.711
409.27	15.769
409.47	15.773
409.68	15.806
409.88	15.799
410.09	15.821
410.29	15.862
410.50	15.896
410.71	15.914
410.91	15.923
411.12	15.982
411.32	16.023
411.53	16.012
411.73	16.063
411.94	16.114
412.14	16.157
412.35	16.193
412.55	16.234
412.76	16.251
412.96	16.293
413.17	16.335
413.37	16.318
413.58	16.359
413.78	16.393
413.99	16.400
414.19	16.381
414.40	16.415
414.61	16.414
414.81	16.402
415.02	16.424
415.22	16.439
415.43	16.465
415.63	16.470
415.84	16.465
416.04	16.482
416.25	16.513
416.45	16.510
416.66	16.498
416.86	16.536
417.07	16.541
417.27	16.535
417.48	16.539
417.68	16.549
417.89	16.594
418.09	16.607
418.30	16.638
418.50	16.637
418.71	16.668
418.91	16.718
419.12	16.735
419.32	16.784
419.53	16.815
419.73	16.848
419.94	16.849
420.14	16.826
420.34	16.820
420.55	16.798
420.75	16.824
420.96	16.855
421.16	16.872
421.37	16.897
421.57	16.909
421.78	16.945
421.98	16.992
422.19	17.041
422.39	17.105
422.60	17.154
422.80	17.210
423.01	17.223
423.21	17.239
423.42	17.237
423.62	17.242
423.83	17.248
424.03	17.260
424.23	17.264
424.44	17.292
424.64	17.319
424.85	17.358
425.05	17.397
425.26	17.448
425.46	17.486
425.67	17.555
425.87	17.630
426.08	17.691
426.28	17.759
426.48	17.809
426.69	17.845
426.89	17.896
427.10	17.936
427.30	17.993
427.51	18.033
427.71	18.077
427.92	18.087
428.12	18.077
428.32	18.074
428.53	18.075
428.73	18.102
428.94	18.152
429.14	18.148
429.35	18.153
429.55	18.158
429.76	18.179
429.96	18.193
430.16	18.211
430.37	18.253
430.57	18.306
430.78	18.313
430.98	18.347
431.19	18.321
431.39	18.342
431.59	18.351
431.80	18.347
432.00	18.331
432.21	18.326
432.41	18.323
432.61	18.317
432.82	18.326
433.02	18.334
433.23	18.322
433.43	18.365
433.64	18.395
433.84	18.448
434.04	18.495
434.25	18.559
434.45	18.616
434.66	18.697
434.86	18.753
435.06	18.801
435.27	18.878
435.47	18.931
435.68	18.962
435.88	18.988
436.08	18.990
436.29	19.007
436.49	19.017
436.70	19.041
436.90	19.037
437.10	19.048
437.31	19.046
437.51	19.057
437.71	19.065
437.92	19.070
438.12	19.065
438.33	19.056
438.53	19.053
438.73	19.046
438.94	19.037
439.14	19.043
439.35	19.058
439.55	19.080
439.75	19.088
439.96	19.125
440.16	19.150
440.36	19.179
440.57	19.231
440.77	19.263
440.97	19.302
441.18	19.367
441.38	19.427
441.59	19.480
441.79	19.532
441.99	19.572
442.20	19.610
442.40	19.649
442.60	19.693
442.81	19.713
443.01	19.739
443.21	19.751
443.42	19.741
443.62	19.716
443.83	19.689
444.03	19.662
444.23	19.627
444.44	19.600
444.64	19.605
444.84	19.598
445.05	19.589
445.25	19.593
445.45	19.573
445.66	19.581
445.86	19.595
446.06	19.605
446.27	19.638
446.47	19.687
446.67	19.720
446.88	19.748
447.08	19.788
447.28	19.833
447.49	19.882
447.69	19.971
447.89	20.028
448.10	20.086
448.30	20.160
448.50	20.209
448.71	20.244
448.91	20.278
449.11	20.306
449.32	20.353
449.52	20.392
449.72	20.433
449.93	20.437
450.13	20.467
450.33	20.504
450.53	20.521
450.74	20.541
450.94	20.558
451.14	20.580
451.35	20.574
451.55	20.590
451.75	20.593
451.96	20.593
452.16	20.589
452.36	20.593
452.57	20.610
452.77	20.650
452.97	20.672
453.17	20.691
453.38	20.742
453.58	20.786
453.78	20.790
453.99	20.800
454.19	20.804
454.39	20.872
454.59	20.898
454.80	20.919
455.00	20.920
455.20	20.968
455.41	21.003
455.61	21.005
455.81	21.036
456.01	21.062
456.22	21.101
456.42	21.141
456.62	21.149
456.83	21.147
457.03	21.152
457.23	21.166
457.43	21.134
457.64	21.128
457.84	21.125
458.04	21.115
458.25	21.109
458.45	21.094
458.65	21.065
458.85	21.029
459.06	21.013
459.26	20.993
459.46	21.000
459.66	21.022
459.87	21.064
460.07	21.114
460.27	21.167
460.47	21.224
460.68	21.292
460.88	21.379
461.08	21.461
461.28	21.565
461.49	21.663
461.69	21.739
461.89	21.813
462.09	21.860
462.30	21.901
462.50	21.937
462.70	21.928
462.90	21.943
463.11	21.932
463.31	21.963
463.51	21.958
463.71	21.968
463.92	21.959
464.12	21.956
464.32	21.945
464.52	21.926
464.72	21.918
464.93	21.944
465.13	21.956
465.33	21.977
465.53	21.975
465.74	21.974
465.94	21.987
466.14	21.992
466.34	21.994
466.54	22.017
466.75	22.050
466.95	22.078
467.15	22.112
467.35	22.136
467.56	22.173
467.76	22.208
467.96	22.242
468.16	22.273
468.36	22.310
468.57	22.336
468.77	22.365
468.97	22.376
469.17	22.401
469.37	22.404
469.58	22.416
469.78	22.407
469.98	22.425
470.18	22.452
470.38	22.480
470.59	22.523
470.79	22.558
470.99	22.603
471.19	22.640
471.39	22.651
471.60	22.678
471.80	22.713
472.00	22.730
472.20	22.714
472.40	22.727
472.61	22.710
472.81	22.724
473.01	22.749
473.21	22.754
473.41	22.773
473.61	22.826
473.82	22.860
474.02	22.885
474.22	22.935
474.42	22.983
474.62	23.008
474.82	23.041
475.03	23.057
475.23	23.058
475.43	23.054
475.63	23.047
475.83	23.018
476.03	23.034
476.24	23.048
476.44	23.027
476.64	23.036
476.84	23.051
477.04	23.079
477.24	23.086
477.45	23.120
477.65	23.145
477.85	23.176
478.05	23.193
478.25	23.213
478.45	23.225
